#      k          |W(k)|^{2}    
    0.000500      0.999992
    0.001500      0.999925
    0.002500      0.999792
    0.003500      0.999592
    0.004500      0.999325
    0.005500      0.998992
    0.006500      0.998593
    0.007500      0.998127
    0.008500      0.997594
    0.009500      0.996996
    0.010500      0.996331
    0.011500      0.995600
    0.012500      0.994804
    0.013500      0.993941
    0.014500      0.993013
    0.015500      0.992020
    0.016500      0.990961
    0.017500      0.989837
    0.018500      0.988649
    0.019500      0.987395
    0.020500      0.986078
    0.021500      0.984696
    0.022500      0.983250
    0.023500      0.981740
    0.024500      0.980167
    0.025500      0.978531
    0.026500      0.976831
    0.027500      0.975069
    0.028500      0.973245
    0.029500      0.971359
    0.030500      0.969411
    0.031500      0.967402
    0.032500      0.965332
    0.033500      0.963201
    0.034500      0.961010
    0.035500      0.958760
    0.036500      0.956449
    0.037500      0.954080
    0.038500      0.951652
    0.039500      0.949166
    0.040500      0.946622
    0.041500      0.944020
    0.042500      0.941362
    0.043500      0.938647
    0.044500      0.935876
    0.045500      0.933050
    0.046500      0.930168
    0.047500      0.927232
    0.048500      0.924242
    0.049500      0.921198
    0.050500      0.918102
    0.051500      0.914953
    0.052500      0.911751
    0.053500      0.908499
    0.054500      0.905195
    0.055500      0.901841
    0.056500      0.898438
    0.057500      0.894985
    0.058500      0.891484
    0.059500      0.887934
    0.060500      0.884337
    0.061500      0.880694
    0.062500      0.877004
    0.063500      0.873268
    0.064500      0.869488
    0.065500      0.865663
    0.066500      0.861794
    0.067500      0.857882
    0.068500      0.853928
    0.069500      0.849932
    0.070500      0.845895
    0.071500      0.841817
    0.072500      0.837700
    0.073500      0.833543
    0.074500      0.829348
    0.075500      0.825115
    0.076500      0.820845
    0.077500      0.816539
    0.078500      0.812196
    0.079500      0.807819
    0.080500      0.803407
    0.081500      0.798962
    0.082500      0.794484
    0.083500      0.789974
    0.084500      0.785432
    0.085500      0.780859
    0.086500      0.776256
    0.087500      0.771624
    0.088500      0.766963
    0.089500      0.762274
    0.090500      0.757559
    0.091500      0.752816
    0.092500      0.748048
    0.093500      0.743255
    0.094500      0.738438
    0.095500      0.733597
    0.096500      0.728734
    0.097500      0.723848
    0.098500      0.718941
    0.099500      0.714014
    0.100500      0.709066
    0.101500      0.704100
    0.102500      0.699115
    0.103500      0.694113
    0.104500      0.689094
    0.105500      0.684059
    0.106500      0.679008
    0.107500      0.673943
    0.108500      0.668864
    0.109500      0.663771
    0.110500      0.658666
    0.111500      0.653550
    0.112500      0.648422
    0.113500      0.643285
    0.114500      0.638137
    0.115500      0.632981
    0.116500      0.627817
    0.117500      0.622646
    0.118500      0.617468
    0.119500      0.612284
    0.120500      0.607094
    0.121500      0.601901
    0.122500      0.596703
    0.123500      0.591503
    0.124500      0.586300
    0.125500      0.581095
    0.126500      0.575889
    0.127500      0.570683
    0.128500      0.565478
    0.129500      0.560273
    0.130500      0.555070
    0.131500      0.549870
    0.132500      0.544673
    0.133500      0.539479
    0.134500      0.534290
    0.135500      0.529106
    0.136500      0.523928
    0.137500      0.518756
    0.138500      0.513591
    0.139500      0.508433
    0.140500      0.503284
    0.141500      0.498144
    0.142500      0.493013
    0.143500      0.487892
    0.144500      0.482782
    0.145500      0.477683
    0.146500      0.472597
    0.147500      0.467522
    0.148500      0.462461
    0.149500      0.457413
    0.150500      0.452380
    0.151500      0.447361
    0.152500      0.442358
    0.153500      0.437370
    0.154500      0.432399
    0.155500      0.427445
    0.156500      0.422508
    0.157500      0.417589
    0.158500      0.412689
    0.159500      0.407807
    0.160500      0.402946
    0.161500      0.398104
    0.162500      0.393282
    0.163500      0.388482
    0.164500      0.383703
    0.165500      0.378945
    0.166500      0.374211
    0.167500      0.369498
    0.168500      0.364809
    0.169500      0.360144
    0.170500      0.355503
    0.171500      0.350886
    0.172500      0.346294
    0.173500      0.341727
    0.174500      0.337186
    0.175500      0.332671
    0.176500      0.328182
    0.177500      0.323721
    0.178500      0.319286
    0.179500      0.314879
    0.180500      0.310499
    0.181500      0.306148
    0.182500      0.301825
    0.183500      0.297531
    0.184500      0.293266
    0.185500      0.289030
    0.186500      0.284824
    0.187500      0.280648
    0.188500      0.276502
    0.189500      0.272387
    0.190500      0.268302
    0.191500      0.264249
    0.192500      0.260227
    0.193500      0.256236
    0.194500      0.252277
    0.195500      0.248350
    0.196500      0.244455
    0.197500      0.240592
    0.198500      0.236762
    0.199500      0.232964
    0.200500      0.229199
    0.201500      0.225468
    0.202500      0.221769
    0.203500      0.218104
    0.204500      0.214473
    0.205500      0.210875
    0.206500      0.207311
    0.207500      0.203780
    0.208500      0.200284
    0.209500      0.196822
    0.210500      0.193394
    0.211500      0.190000
    0.212500      0.186640
    0.213500      0.183315
    0.214500      0.180025
    0.215500      0.176769
    0.216500      0.173547
    0.217500      0.170360
    0.218500      0.167208
    0.219500      0.164091
    0.220500      0.161008
    0.221500      0.157960
    0.222500      0.154947
    0.223500      0.151969
    0.224500      0.149025
    0.225500      0.146116
    0.226500      0.143241
    0.227500      0.140402
    0.228500      0.137596
    0.229500      0.134826
    0.230500      0.132090
    0.231500      0.129388
    0.232500      0.126721
    0.233500      0.124089
    0.234500      0.121490
    0.235500      0.118926
    0.236500      0.116396
    0.237500      0.113899
    0.238500      0.111437
    0.239500      0.109009
    0.240500      0.106614
    0.241500      0.104253
    0.242500      0.101925
    0.243500      0.099631
    0.244500      0.097370
    0.245500      0.095142
    0.246500      0.092947
    0.247500      0.090784
    0.248500      0.088654
    0.249500      0.086557
    0.250500      0.084492
    0.251500      0.082459
    0.252500      0.080458
    0.253500      0.078489
    0.254500      0.076552
    0.255500      0.074646
    0.256500      0.072771
    0.257500      0.070927
    0.258500      0.069114
    0.259500      0.067332
    0.260500      0.065580
    0.261500      0.063858
    0.262500      0.062167
    0.263500      0.060505
    0.264500      0.058872
    0.265500      0.057270
    0.266500      0.055696
    0.267500      0.054151
    0.268500      0.052634
    0.269500      0.051147
    0.270500      0.049687
    0.271500      0.048255
    0.272500      0.046851
    0.273500      0.045474
    0.274500      0.044125
    0.275500      0.042802
    0.276500      0.041507
    0.277500      0.040237
    0.278500      0.038994
    0.279500      0.037777
    0.280500      0.036585
    0.281500      0.035419
    0.282500      0.034277
    0.283500      0.033161
    0.284500      0.032069
    0.285500      0.031002
    0.286500      0.029958
    0.287500      0.028939
    0.288500      0.027942
    0.289500      0.026969
    0.290500      0.026019
    0.291500      0.025092
    0.292500      0.024187
    0.293500      0.023304
    0.294500      0.022442
    0.295500      0.021603
    0.296500      0.020784
    0.297500      0.019987
    0.298500      0.019210
    0.299500      0.018453
    0.300500      0.017717
    0.301500      0.017000
    0.302500      0.016303
    0.303500      0.015626
    0.304500      0.014967
    0.305500      0.014327
    0.306500      0.013705
    0.307500      0.013101
    0.308500      0.012516
    0.309500      0.011947
    0.310500      0.011396
    0.311500      0.010863
    0.312500      0.010345
    0.313500      0.009845
    0.314500      0.009360
    0.315500      0.008891
    0.316500      0.008438
    0.317500      0.008000
    0.318500      0.007577
    0.319500      0.007169
    0.320500      0.006776
    0.321500      0.006396
    0.322500      0.006031
    0.323500      0.005680
    0.324500      0.005341
    0.325500      0.005016
    0.326500      0.004704
    0.327500      0.004405
    0.328500      0.004118
    0.329500      0.003843
    0.330500      0.003580
    0.331500      0.003328
    0.332500      0.003088
    0.333500      0.002859
    0.334500      0.002641
    0.335500      0.002433
    0.336500      0.002236
    0.337500      0.002049
    0.338500      0.001872
    0.339500      0.001705
    0.340500      0.001546
    0.341500      0.001398
    0.342500      0.001258
    0.343500      0.001126
    0.344500      0.001004
    0.345500      0.000889
    0.346500      0.000783
    0.347500      0.000684
    0.348500      0.000593
    0.349500      0.000509
    0.350500      0.000433
    0.351500      0.000363
    0.352500      0.000301
    0.353500      0.000245
    0.354500      0.000195
    0.355500      0.000151
    0.356500      0.000113
    0.357500      0.000081
    0.358500      0.000055
    0.359500      0.000034
    0.360500      0.000018
    0.361500      0.000007
    0.362500      0.000001
    0.363500      0.000000
    0.364500      0.000003
    0.365500      0.000011
    0.366500      0.000022
    0.367500      0.000038
    0.368500      0.000057
    0.369500      0.000080
    0.370500      0.000107
    0.371500      0.000137
    0.372500      0.000169
    0.373500      0.000205
    0.374500      0.000244
    0.375500      0.000286
    0.376500      0.000330
    0.377500      0.000377
    0.378500      0.000426
    0.379500      0.000477
    0.380500      0.000530
    0.381500      0.000585
    0.382500      0.000642
    0.383500      0.000700
    0.384500      0.000760
    0.385500      0.000822
    0.386500      0.000884
    0.387500      0.000948
    0.388500      0.001013
    0.389500      0.001079
    0.390500      0.001146
    0.391500      0.001214
    0.392500      0.001282
    0.393500      0.001351
    0.394500      0.001420
    0.395500      0.001490
    0.396500      0.001560
    0.397500      0.001631
    0.398500      0.001701
    0.399500      0.001771
    0.400500      0.001842
    0.401500      0.001912
    0.402500      0.001982
    0.403500      0.002052
    0.404500      0.002121
    0.405500      0.002190
    0.406500      0.002259
    0.407500      0.002327
    0.408500      0.002395
    0.409500      0.002461
    0.410500      0.002528
    0.411500      0.002593
    0.412500      0.002657
    0.413500      0.002721
    0.414500      0.002784
    0.415500      0.002846
    0.416500      0.002907
    0.417500      0.002966
    0.418500      0.003025
    0.419500      0.003083
    0.420500      0.003139
    0.421500      0.003194
    0.422500      0.003248
    0.423500      0.003301
    0.424500      0.003352
    0.425500      0.003402
    0.426500      0.003451
    0.427500      0.003499
    0.428500      0.003545
    0.429500      0.003589
    0.430500      0.003633
    0.431500      0.003674
    0.432500      0.003715
    0.433500      0.003754
    0.434500      0.003791
    0.435500      0.003827
    0.436500      0.003861
    0.437500      0.003894
    0.438500      0.003925
    0.439500      0.003955
    0.440500      0.003984
    0.441500      0.004010
    0.442500      0.004036
    0.443500      0.004059
    0.444500      0.004082
    0.445500      0.004102
    0.446500      0.004121
    0.447500      0.004139
    0.448500      0.004155
    0.449500      0.004170
    0.450500      0.004183
    0.451500      0.004194
    0.452500      0.004204
    0.453500      0.004213
    0.454500      0.004220
    0.455500      0.004226
    0.456500      0.004230
    0.457500      0.004233
    0.458500      0.004234
    0.459500      0.004234
    0.460500      0.004233
    0.461500      0.004230
    0.462500      0.004226
    0.463500      0.004221
    0.464500      0.004214
    0.465500      0.004206
    0.466500      0.004196
    0.467500      0.004186
    0.468500      0.004174
    0.469500      0.004161
    0.470500      0.004147
    0.471500      0.004131
    0.472500      0.004115
    0.473500      0.004097
    0.474500      0.004078
    0.475500      0.004059
    0.476500      0.004038
    0.477500      0.004016
    0.478500      0.003993
    0.479500      0.003969
    0.480500      0.003944
    0.481500      0.003918
    0.482500      0.003891
    0.483500      0.003864
    0.484500      0.003835
    0.485500      0.003806
    0.486500      0.003776
    0.487500      0.003745
    0.488500      0.003713
    0.489500      0.003681
    0.490500      0.003648
    0.491500      0.003614
    0.492500      0.003580
    0.493500      0.003544
    0.494500      0.003509
    0.495500      0.003473
    0.496500      0.003436
    0.497500      0.003398
    0.498500      0.003361
    0.499500      0.003322
    0.500500      0.003283
    0.501500      0.003244
    0.502500      0.003205
    0.503500      0.003165
    0.504500      0.003124
    0.505500      0.003084
    0.506500      0.003043
    0.507500      0.003002
    0.508500      0.002960
    0.509500      0.002918
    0.510500      0.002876
    0.511500      0.002834
    0.512500      0.002792
    0.513500      0.002750
    0.514500      0.002707
    0.515500      0.002664
    0.516500      0.002622
    0.517500      0.002579
    0.518500      0.002536
    0.519500      0.002493
    0.520500      0.002450
    0.521500      0.002408
    0.522500      0.002365
    0.523500      0.002322
    0.524500      0.002279
    0.525500      0.002237
    0.526500      0.002194
    0.527500      0.002152
    0.528500      0.002110
    0.529500      0.002068
    0.530500      0.002026
    0.531500      0.001985
    0.532500      0.001943
    0.533500      0.001902
    0.534500      0.001861
    0.535500      0.001821
    0.536500      0.001781
    0.537500      0.001741
    0.538500      0.001701
    0.539500      0.001661
    0.540500      0.001622
    0.541500      0.001584
    0.542500      0.001545
    0.543500      0.001507
    0.544500      0.001469
    0.545500      0.001432
    0.546500      0.001395
    0.547500      0.001359
    0.548500      0.001323
    0.549500      0.001287
    0.550500      0.001252
    0.551500      0.001217
    0.552500      0.001183
    0.553500      0.001149
    0.554500      0.001116
    0.555500      0.001083
    0.556500      0.001050
    0.557500      0.001018
    0.558500      0.000987
    0.559500      0.000956
    0.560500      0.000925
    0.561500      0.000895
    0.562500      0.000866
    0.563500      0.000837
    0.564500      0.000809
    0.565500      0.000781
    0.566500      0.000753
    0.567500      0.000726
    0.568500      0.000700
    0.569500      0.000674
    0.570500      0.000649
    0.571500      0.000624
    0.572500      0.000600
    0.573500      0.000576
    0.574500      0.000553
    0.575500      0.000530
    0.576500      0.000508
    0.577500      0.000486
    0.578500      0.000465
    0.579500      0.000445
    0.580500      0.000425
    0.581500      0.000405
    0.582500      0.000386
    0.583500      0.000368
    0.584500      0.000350
    0.585500      0.000332
    0.586500      0.000315
    0.587500      0.000299
    0.588500      0.000283
    0.589500      0.000268
    0.590500      0.000253
    0.591500      0.000238
    0.592500      0.000224
    0.593500      0.000211
    0.594500      0.000198
    0.595500      0.000185
    0.596500      0.000173
    0.597500      0.000162
    0.598500      0.000151
    0.599500      0.000140
    0.600500      0.000130
    0.601500      0.000120
    0.602500      0.000111
    0.603500      0.000102
    0.604500      0.000093
    0.605500      0.000085
    0.606500      0.000078
    0.607500      0.000070
    0.608500      0.000063
    0.609500      0.000057
    0.610500      0.000051
    0.611500      0.000045
    0.612500      0.000040
    0.613500      0.000035
    0.614500      0.000030
    0.615500      0.000026
    0.616500      0.000022
    0.617500      0.000019
    0.618500      0.000016
    0.619500      0.000013
    0.620500      0.000010
    0.621500      0.000008
    0.622500      0.000006
    0.623500      0.000004
    0.624500      0.000003
    0.625500      0.000002
    0.626500      0.000001
    0.627500      0.000000
    0.628500      0.000000
    0.629500      0.000000
    0.630500      0.000000
    0.631500      0.000001
    0.632500      0.000001
    0.633500      0.000002
    0.634500      0.000003
    0.635500      0.000005
    0.636500      0.000006
    0.637500      0.000008
    0.638500      0.000010
    0.639500      0.000012
    0.640500      0.000014
    0.641500      0.000016
    0.642500      0.000019
    0.643500      0.000022
    0.644500      0.000024
    0.645500      0.000027
    0.646500      0.000031
    0.647500      0.000034
    0.648500      0.000037
    0.649500      0.000041
    0.650500      0.000044
    0.651500      0.000048
    0.652500      0.000052
    0.653500      0.000055
    0.654500      0.000059
    0.655500      0.000063
    0.656500      0.000067
    0.657500      0.000072
    0.658500      0.000076
    0.659500      0.000080
    0.660500      0.000084
    0.661500      0.000089
    0.662500      0.000093
    0.663500      0.000097
    0.664500      0.000102
    0.665500      0.000106
    0.666500      0.000111
    0.667500      0.000115
    0.668500      0.000120
    0.669500      0.000124
    0.670500      0.000129
    0.671500      0.000133
    0.672500      0.000138
    0.673500      0.000142
    0.674500      0.000146
    0.675500      0.000151
    0.676500      0.000155
    0.677500      0.000160
    0.678500      0.000164
    0.679500      0.000168
    0.680500      0.000172
    0.681500      0.000176
    0.682500      0.000181
    0.683500      0.000185
    0.684500      0.000189
    0.685500      0.000193
    0.686500      0.000197
    0.687500      0.000200
    0.688500      0.000204
    0.689500      0.000208
    0.690500      0.000212
    0.691500      0.000215
    0.692500      0.000219
    0.693500      0.000222
    0.694500      0.000225
    0.695500      0.000229
    0.696500      0.000232
    0.697500      0.000235
    0.698500      0.000238
    0.699500      0.000241
    0.700500      0.000244
    0.701500      0.000246
    0.702500      0.000249
    0.703500      0.000252
    0.704500      0.000254
    0.705500      0.000256
    0.706500      0.000259
    0.707500      0.000261
    0.708500      0.000263
    0.709500      0.000265
    0.710500      0.000267
    0.711500      0.000269
    0.712500      0.000270
    0.713500      0.000272
    0.714500      0.000273
    0.715500      0.000275
    0.716500      0.000276
    0.717500      0.000277
    0.718500      0.000279
    0.719500      0.000280
    0.720500      0.000280
    0.721500      0.000281
    0.722500      0.000282
    0.723500      0.000283
    0.724500      0.000283
    0.725500      0.000284
    0.726500      0.000284
    0.727500      0.000284
    0.728500      0.000284
    0.729500      0.000285
    0.730500      0.000285
    0.731500      0.000284
    0.732500      0.000284
    0.733500      0.000284
    0.734500      0.000284
    0.735500      0.000283
    0.736500      0.000283
    0.737500      0.000282
    0.738500      0.000281
    0.739500      0.000281
    0.740500      0.000280
    0.741500      0.000279
    0.742500      0.000278
    0.743500      0.000277
    0.744500      0.000275
    0.745500      0.000274
    0.746500      0.000273
    0.747500      0.000272
    0.748500      0.000270
    0.749500      0.000269
    0.750500      0.000267
    0.751500      0.000265
    0.752500      0.000264
    0.753500      0.000262
    0.754500      0.000260
    0.755500      0.000258
    0.756500      0.000256
    0.757500      0.000254
    0.758500      0.000252
    0.759500      0.000250
    0.760500      0.000248
    0.761500      0.000246
    0.762500      0.000244
    0.763500      0.000241
    0.764500      0.000239
    0.765500      0.000237
    0.766500      0.000234
    0.767500      0.000232
    0.768500      0.000229
    0.769500      0.000227
    0.770500      0.000224
    0.771500      0.000222
    0.772500      0.000219
    0.773500      0.000217
    0.774500      0.000214
    0.775500      0.000211
    0.776500      0.000209
    0.777500      0.000206
    0.778500      0.000203
    0.779500      0.000200
    0.780500      0.000198
    0.781500      0.000195
    0.782500      0.000192
    0.783500      0.000189
    0.784500      0.000186
    0.785500      0.000184
    0.786500      0.000181
    0.787500      0.000178
    0.788500      0.000175
    0.789500      0.000172
    0.790500      0.000169
    0.791500      0.000166
    0.792500      0.000164
    0.793500      0.000161
    0.794500      0.000158
    0.795500      0.000155
    0.796500      0.000152
    0.797500      0.000149
    0.798500      0.000147
    0.799500      0.000144
    0.800500      0.000141
    0.801500      0.000138
    0.802500      0.000135
    0.803500      0.000133
    0.804500      0.000130
    0.805500      0.000127
    0.806500      0.000125
    0.807500      0.000122
    0.808500      0.000119
    0.809500      0.000116
    0.810500      0.000114
    0.811500      0.000111
    0.812500      0.000109
    0.813500      0.000106
    0.814500      0.000104
    0.815500      0.000101
    0.816500      0.000098
    0.817500      0.000096
    0.818500      0.000094
    0.819500      0.000091
    0.820500      0.000089
    0.821500      0.000086
    0.822500      0.000084
    0.823500      0.000082
    0.824500      0.000079
    0.825500      0.000077
    0.826500      0.000075
    0.827500      0.000073
    0.828500      0.000071
    0.829500      0.000069
    0.830500      0.000066
    0.831500      0.000064
    0.832500      0.000062
    0.833500      0.000060
    0.834500      0.000058
    0.835500      0.000057
    0.836500      0.000055
    0.837500      0.000053
    0.838500      0.000051
    0.839500      0.000049
    0.840500      0.000047
    0.841500      0.000046
    0.842500      0.000044
    0.843500      0.000042
    0.844500      0.000041
    0.845500      0.000039
    0.846500      0.000038
    0.847500      0.000036
    0.848500      0.000035
    0.849500      0.000033
    0.850500      0.000032
    0.851500      0.000030
    0.852500      0.000029
    0.853500      0.000028
    0.854500      0.000027
    0.855500      0.000025
    0.856500      0.000024
    0.857500      0.000023
    0.858500      0.000022
    0.859500      0.000021
    0.860500      0.000020
    0.861500      0.000019
    0.862500      0.000018
    0.863500      0.000017
    0.864500      0.000016
    0.865500      0.000015
    0.866500      0.000014
    0.867500      0.000013
    0.868500      0.000012
    0.869500      0.000012
    0.870500      0.000011
    0.871500      0.000010
    0.872500      0.000009
    0.873500      0.000009
    0.874500      0.000008
    0.875500      0.000007
    0.876500      0.000007
    0.877500      0.000006
    0.878500      0.000006
    0.879500      0.000005
    0.880500      0.000005
    0.881500      0.000004
    0.882500      0.000004
    0.883500      0.000004
    0.884500      0.000003
    0.885500      0.000003
    0.886500      0.000002
    0.887500      0.000002
    0.888500      0.000002
    0.889500      0.000002
    0.890500      0.000001
    0.891500      0.000001
    0.892500      0.000001
    0.893500      0.000001
    0.894500      0.000001
    0.895500      0.000000
    0.896500      0.000000
    0.897500      0.000000
    0.898500      0.000000
    0.899500      0.000000
    0.900500      0.000000
    0.901500      0.000000
    0.902500      0.000000
    0.903500      0.000000
    0.904500      0.000000
    0.905500      0.000000
    0.906500      0.000000
    0.907500      0.000000
    0.908500      0.000000
    0.909500      0.000000
    0.910500      0.000000
    0.911500      0.000000
    0.912500      0.000001
    0.913500      0.000001
    0.914500      0.000001
    0.915500      0.000001
    0.916500      0.000001
    0.917500      0.000001
    0.918500      0.000001
    0.919500      0.000002
    0.920500      0.000002
    0.921500      0.000002
    0.922500      0.000002
    0.923500      0.000002
    0.924500      0.000003
    0.925500      0.000003
    0.926500      0.000003
    0.927500      0.000003
    0.928500      0.000004
    0.929500      0.000004
    0.930500      0.000004
    0.931500      0.000004
    0.932500      0.000005
    0.933500      0.000005
    0.934500      0.000005
    0.935500      0.000005
    0.936500      0.000006
    0.937500      0.000006
    0.938500      0.000006
    0.939500      0.000006
    0.940500      0.000007
    0.941500      0.000007
    0.942500      0.000007
    0.943500      0.000007
    0.944500      0.000008
    0.945500      0.000008
    0.946500      0.000008
    0.947500      0.000008
    0.948500      0.000009
    0.949500      0.000009
    0.950500      0.000009
    0.951500      0.000010
    0.952500      0.000010
    0.953500      0.000010
    0.954500      0.000010
    0.955500      0.000011
    0.956500      0.000011
    0.957500      0.000011
    0.958500      0.000011
    0.959500      0.000012
    0.960500      0.000012
    0.961500      0.000012
    0.962500      0.000012
    0.963500      0.000012
    0.964500      0.000013
    0.965500      0.000013
    0.966500      0.000013
    0.967500      0.000013
    0.968500      0.000013
    0.969500      0.000014
    0.970500      0.000014
    0.971500      0.000014
    0.972500      0.000014
    0.973500      0.000014
    0.974500      0.000015
    0.975500      0.000015
    0.976500      0.000015
    0.977500      0.000015
    0.978500      0.000015
    0.979500      0.000015
    0.980500      0.000016
    0.981500      0.000016
    0.982500      0.000016
    0.983500      0.000016
    0.984500      0.000016
    0.985500      0.000016
    0.986500      0.000016
    0.987500      0.000016
    0.988500      0.000017
    0.989500      0.000017
    0.990500      0.000017
    0.991500      0.000017
    0.992500      0.000017
    0.993500      0.000017
    0.994500      0.000017
    0.995500      0.000017
    0.996500      0.000017
    0.997500      0.000017
    0.998500      0.000017
    0.999500      0.000017
